#FORMAT	     : EMSA/MAS Spectral Data File
#VERSION     : 1.0
#TITLE       : hl
#DATE        : 6/8/2005
#TIME        : 12:01:44 PM
#OWNER       : 
#NPOINTS     : 1024
#NCOLUMNS    : 1
#XUNITS      : eV
#YUNITS      : e-
#DATATYPE    : XY
#XPERCHAN    : 2.999999e-001
#OFFSET      : 3.575000e+002
#SPECTRUM    : Spectral Data Starts Here
3.575000e+002, 3.283000e+004
3.578000e+002, 3.328172e+004
3.581000e+002, 3.333343e+004
3.584000e+002, 3.321314e+004
3.587000e+002, 3.295486e+004
3.590000e+002, 3.284014e+004
3.593000e+002, 3.280400e+004
3.596000e+002, 3.275243e+004
3.599000e+002, 3.269757e+004
3.602000e+002, 3.252414e+004
3.605000e+002, 3.255600e+004
3.608000e+002, 3.230729e+004
3.611000e+002, 3.208386e+004
3.614000e+002, 3.224457e+004
3.617000e+002, 3.224872e+004
3.620000e+002, 3.224057e+004
3.623000e+002, 3.197257e+004
3.626000e+002, 3.182372e+004
3.629000e+002, 3.184757e+004
3.632000e+002, 3.191057e+004
3.635000e+002, 3.190172e+004
3.638000e+002, 3.186957e+004
3.641000e+002, 3.186857e+004
3.644000e+002, 3.173800e+004
3.647000e+002, 3.168857e+004
3.650000e+002, 3.168029e+004
3.653000e+002, 3.179014e+004
3.656000e+002, 3.179157e+004
3.659000e+002, 3.169900e+004
3.662000e+002, 3.169729e+004
3.665000e+002, 3.158657e+004
3.668000e+002, 3.147972e+004
3.671000e+002, 3.140286e+004
3.674000e+002, 3.145872e+004
3.677000e+002, 3.138629e+004
3.680000e+002, 3.144872e+004
3.683000e+002, 3.121557e+004
3.686000e+002, 3.112643e+004
3.689000e+002, 3.099700e+004
3.692000e+002, 3.090757e+004
3.695000e+002, 3.096372e+004
3.698000e+002, 3.101343e+004
3.701000e+002, 3.081257e+004
3.704000e+002, 3.068300e+004
3.707000e+002, 3.058843e+004
3.710000e+002, 3.048972e+004
3.713000e+002, 3.046857e+004
3.716000e+002, 3.029414e+004
3.719000e+002, 3.010486e+004
3.722000e+002, 2.995614e+004
3.725000e+002, 2.980357e+004
3.728000e+002, 2.967972e+004
3.731000e+002, 2.974786e+004
3.734000e+002, 2.979057e+004
3.737000e+002, 2.979100e+004
3.740000e+002, 2.965043e+004
3.743000e+002, 2.940186e+004
3.746000e+002, 2.923472e+004
3.749000e+002, 2.919114e+004
3.752000e+002, 2.921243e+004
3.755000e+002, 2.905757e+004
3.758000e+002, 2.901500e+004
3.761000e+002, 2.883786e+004
3.764000e+002, 2.879472e+004
3.767000e+002, 2.876814e+004
3.770000e+002, 2.880986e+004
3.773000e+002, 2.888229e+004
3.776000e+002, 2.881043e+004
3.779000e+002, 2.873972e+004
3.782000e+002, 2.869729e+004
3.785000e+002, 2.847372e+004
3.788000e+002, 2.824072e+004
3.791000e+002, 2.811700e+004
3.794000e+002, 2.803957e+004
3.797000e+002, 2.803714e+004
3.800000e+002, 2.806886e+004
3.803000e+002, 2.793986e+004
3.806000e+002, 2.793029e+004
3.809000e+002, 2.798757e+004
3.812000e+002, 2.789357e+004
3.815000e+002, 2.772972e+004
3.818000e+002, 2.759700e+004
3.821000e+002, 2.748500e+004
3.824000e+002, 2.741943e+004
3.827000e+002, 2.728600e+004
3.830000e+002, 2.714472e+004
3.833000e+002, 2.716629e+004
3.836000e+002, 2.719957e+004
3.839000e+002, 2.727429e+004
3.842000e+002, 2.717114e+004
3.845000e+002, 2.722343e+004
3.848000e+002, 2.718043e+004
3.851000e+002, 2.706114e+004
3.854000e+002, 2.699014e+004
3.857000e+002, 2.693443e+004
3.860000e+002, 2.687143e+004
3.863000e+002, 2.677514e+004
3.866000e+002, 2.657643e+004
3.869000e+002, 2.659372e+004
3.872000e+002, 2.663457e+004
3.875000e+002, 2.653972e+004
3.878000e+002, 2.631457e+004
3.881000e+002, 2.620586e+004
3.884000e+002, 2.630500e+004
3.887000e+002, 2.634314e+004
3.890000e+002, 2.612786e+004
3.893000e+002, 2.600400e+004
3.896000e+002, 2.597514e+004
3.899000e+002, 2.591657e+004
3.902000e+002, 2.584343e+004
3.905000e+002, 2.574672e+004
3.908000e+002, 2.566429e+004
3.911000e+002, 2.576200e+004
3.914000e+002, 2.570614e+004
3.917000e+002, 2.555043e+004
3.920000e+002, 2.537314e+004
3.923000e+002, 2.523657e+004
3.926000e+002, 2.519300e+004
3.929000e+002, 2.531400e+004
3.932000e+002, 2.529357e+004
3.935000e+002, 2.528714e+004
3.938000e+002, 2.529872e+004
3.941000e+002, 2.520586e+004
3.944000e+002, 2.518929e+004
3.947000e+002, 2.508229e+004
3.950000e+002, 2.491229e+004
3.953000e+002, 2.485843e+004
3.956000e+002, 2.480457e+004
3.959000e+002, 2.484729e+004
3.962000e+002, 2.473429e+004
3.965000e+002, 2.472143e+004
3.968000e+002, 2.459714e+004
3.971000e+002, 2.454872e+004
3.974000e+002, 2.454543e+004
3.977000e+002, 2.452157e+004
3.980000e+002, 2.447800e+004
3.983000e+002, 2.448686e+004
3.986000e+002, 2.438872e+004
3.989000e+002, 2.431200e+004
3.992000e+002, 2.438243e+004
3.995000e+002, 2.428714e+004
3.998000e+002, 2.411543e+004
4.001000e+002, 2.411786e+004
4.004000e+002, 2.401200e+004
4.007000e+002, 2.401329e+004
4.010000e+002, 2.390272e+004
4.013000e+002, 2.379100e+004
4.016000e+002, 2.368586e+004
4.019000e+002, 2.363172e+004
4.022000e+002, 2.355386e+004
4.025000e+002, 2.356486e+004
4.028000e+002, 2.352129e+004
4.031000e+002, 2.343814e+004
4.034000e+002, 2.344843e+004
4.037000e+002, 2.335314e+004
4.040000e+002, 2.330857e+004
4.043000e+002, 2.332872e+004
4.046000e+002, 2.330957e+004
4.049000e+002, 2.328986e+004
4.052000e+002, 2.315814e+004
4.055000e+002, 2.314200e+004
4.058000e+002, 2.315543e+004
4.061000e+002, 2.305929e+004
4.064000e+002, 2.304114e+004
4.067000e+002, 2.311986e+004
4.070000e+002, 2.305743e+004
4.073000e+002, 2.294314e+004
4.076000e+002, 2.302900e+004
4.079000e+002, 2.289657e+004
4.082000e+002, 2.266586e+004
4.085000e+002, 2.264457e+004
4.088000e+002, 2.253943e+004
4.091000e+002, 2.248186e+004
4.094000e+002, 2.247500e+004
4.097000e+002, 2.234400e+004
4.100000e+002, 2.226186e+004
4.103000e+002, 2.224329e+004
4.106000e+002, 2.220714e+004
4.109000e+002, 2.214500e+004
4.112000e+002, 2.204914e+004
4.115000e+002, 2.208814e+004
4.118000e+002, 2.192257e+004
4.121000e+002, 2.195243e+004
4.124000e+002, 2.194029e+004
4.127000e+002, 2.184286e+004
4.130000e+002, 2.180214e+004
4.133000e+002, 2.186300e+004
4.136000e+002, 2.191786e+004
4.139000e+002, 2.180714e+004
4.142000e+002, 2.167886e+004
4.145000e+002, 2.170657e+004
4.148000e+002, 2.167072e+004
4.151000e+002, 2.144557e+004
4.154000e+002, 2.144329e+004
4.157000e+002, 2.141186e+004
4.160000e+002, 2.144757e+004
4.163000e+002, 2.147557e+004
4.166000e+002, 2.144814e+004
4.169000e+002, 2.133114e+004
4.172000e+002, 2.111886e+004
4.175000e+002, 2.115600e+004
4.178000e+002, 2.116914e+004
4.181000e+002, 2.110343e+004
4.184000e+002, 2.108972e+004
4.187000e+002, 2.091386e+004
4.190000e+002, 2.088172e+004
4.193000e+002, 2.084500e+004
4.196000e+002, 2.086172e+004
4.199000e+002, 2.079143e+004
4.202000e+002, 2.077757e+004
4.205000e+002, 2.074257e+004
4.208000e+002, 2.060900e+004
4.211000e+002, 2.046729e+004
4.214000e+002, 2.044600e+004
4.217000e+002, 2.045629e+004
4.220000e+002, 2.055700e+004
4.223000e+002, 2.045900e+004
4.226000e+002, 2.035243e+004
4.229000e+002, 2.036143e+004
4.232000e+002, 2.036472e+004
4.235000e+002, 2.027486e+004
4.238000e+002, 2.011929e+004
4.241000e+002, 2.007286e+004
4.244000e+002, 2.009200e+004
4.247000e+002, 2.013414e+004
4.250000e+002, 2.006157e+004
4.253000e+002, 2.009600e+004
4.256000e+002, 2.013843e+004
4.259000e+002, 2.004986e+004
4.262000e+002, 1.997200e+004
4.265000e+002, 1.990572e+004
4.268000e+002, 1.996100e+004
4.271000e+002, 1.975072e+004
4.274000e+002, 1.949229e+004
4.277000e+002, 1.947057e+004
4.280000e+002, 1.940600e+004
4.283000e+002, 1.935743e+004
4.286000e+002, 1.942214e+004
4.289000e+002, 1.936043e+004
4.292000e+002, 1.936514e+004
4.295000e+002, 1.936386e+004
4.298000e+002, 1.947957e+004
4.301000e+002, 1.938486e+004
4.304000e+002, 1.925914e+004
4.307000e+002, 1.920600e+004
4.310000e+002, 1.917314e+004
4.313000e+002, 1.909872e+004
4.316000e+002, 1.909443e+004
4.319000e+002, 1.899743e+004
4.322000e+002, 1.887114e+004
4.325000e+002, 1.886014e+004
4.328000e+002, 1.899857e+004
4.331000e+002, 1.894172e+004
4.334000e+002, 1.888229e+004
4.337000e+002, 1.885129e+004
4.340000e+002, 1.882972e+004
4.343000e+002, 1.883100e+004
4.346000e+002, 1.871086e+004
4.349000e+002, 1.863329e+004
4.352000e+002, 1.852743e+004
4.355000e+002, 1.852243e+004
4.358000e+002, 1.856643e+004
4.361000e+002, 1.847400e+004
4.364000e+002, 1.831414e+004
4.367000e+002, 1.831886e+004
4.370000e+002, 1.839029e+004
4.373000e+002, 1.831243e+004
4.376000e+002, 1.818943e+004
4.379000e+002, 1.809829e+004
4.382000e+002, 1.807514e+004
4.385000e+002, 1.797643e+004
4.388000e+002, 1.800872e+004
4.391000e+002, 1.795086e+004
4.394000e+002, 1.790443e+004
4.397000e+002, 1.791186e+004
4.400000e+002, 1.779200e+004
4.403000e+002, 1.775957e+004
4.406000e+002, 1.772886e+004
4.409000e+002, 1.754914e+004
4.412000e+002, 1.743829e+004
4.415000e+002, 1.737514e+004
4.418000e+002, 1.736114e+004
4.421000e+002, 1.750114e+004
4.424000e+002, 1.749543e+004
4.427000e+002, 1.746129e+004
4.430000e+002, 1.740757e+004
4.433000e+002, 1.736214e+004
4.436000e+002, 1.731672e+004
4.439000e+002, 1.732814e+004
4.442000e+002, 1.737357e+004
4.445000e+002, 1.717929e+004
4.448000e+002, 1.716929e+004
4.451000e+002, 1.716214e+004
4.454000e+002, 1.708743e+004
4.457000e+002, 1.704929e+004
4.460000e+002, 1.703214e+004
4.463000e+002, 1.688300e+004
4.466000e+002, 1.691372e+004
4.469000e+002, 1.676757e+004
4.472000e+002, 1.679872e+004
4.475000e+002, 1.671114e+004
4.478000e+002, 1.671686e+004
4.481000e+002, 1.672100e+004
4.484000e+002, 1.676243e+004
4.487000e+002, 1.666786e+004
4.490000e+002, 1.660743e+004
4.493000e+002, 1.661743e+004
4.496000e+002, 1.657857e+004
4.499000e+002, 1.643972e+004
4.502000e+002, 1.646186e+004
4.505000e+002, 1.643957e+004
4.508000e+002, 1.639257e+004
4.511000e+002, 1.635629e+004
4.514000e+002, 1.626529e+004
4.517000e+002, 1.631314e+004
4.520000e+002, 1.636786e+004
4.523000e+002, 1.628657e+004
4.526000e+002, 1.609543e+004
4.529000e+002, 1.609686e+004
4.532000e+002, 1.622972e+004
4.535000e+002, 1.627714e+004
4.538000e+002, 1.611043e+004
4.541000e+002, 1.606600e+004
4.544000e+002, 1.609314e+004
4.547000e+002, 1.613243e+004
4.550000e+002, 1.623557e+004
4.553000e+002, 1.636843e+004
4.556000e+002, 1.655957e+004
4.559000e+002, 1.690100e+004
4.562000e+002, 1.721814e+004
4.565000e+002, 1.776443e+004
4.568000e+002, 1.862857e+004
4.571000e+002, 1.948400e+004
4.574000e+002, 2.049429e+004
4.577000e+002, 2.171043e+004
4.580000e+002, 2.286029e+004
4.583000e+002, 2.386772e+004
4.586000e+002, 2.505714e+004
4.589000e+002, 2.617414e+004
4.592000e+002, 2.720672e+004
4.595000e+002, 2.831657e+004
4.598000e+002, 2.938243e+004
4.601000e+002, 3.035843e+004
4.604000e+002, 3.115500e+004
4.607000e+002, 3.164672e+004
4.610000e+002, 3.193557e+004
4.613000e+002, 3.190972e+004
4.616000e+002, 3.180700e+004
4.619000e+002, 3.159957e+004
4.622000e+002, 3.121443e+004
4.625000e+002, 3.096143e+004
4.628000e+002, 3.102200e+004
4.631000e+002, 3.125100e+004
4.634000e+002, 3.172443e+004
4.637000e+002, 3.239614e+004
4.640000e+002, 3.316772e+004
4.643000e+002, 3.416372e+004
4.646000e+002, 3.513572e+004
4.649000e+002, 3.605100e+004
4.652000e+002, 3.699143e+004
4.655000e+002, 3.781729e+004
4.658000e+002, 3.856472e+004
4.661000e+002, 3.893772e+004
4.664000e+002, 3.864814e+004
4.667000e+002, 3.773486e+004
4.670000e+002, 3.657343e+004
4.673000e+002, 3.502472e+004
4.676000e+002, 3.317000e+004
4.679000e+002, 3.127757e+004
4.682000e+002, 2.945814e+004
4.685000e+002, 2.749614e+004
4.688000e+002, 2.567600e+004
4.691000e+002, 2.422414e+004
4.694000e+002, 2.302329e+004
4.697000e+002, 2.200043e+004
4.700000e+002, 2.129086e+004
4.703000e+002, 2.091657e+004
4.706000e+002, 2.054829e+004
4.709000e+002, 2.033786e+004
4.712000e+002, 2.026372e+004
4.715000e+002, 2.009129e+004
4.718000e+002, 1.992686e+004
4.721000e+002, 1.996272e+004
4.724000e+002, 1.995143e+004
4.727000e+002, 2.005829e+004
4.730000e+002, 2.000529e+004
4.733000e+002, 1.995872e+004
4.736000e+002, 1.976000e+004
4.739000e+002, 1.971400e+004
4.742000e+002, 1.971614e+004
4.745000e+002, 1.963786e+004
4.748000e+002, 1.952843e+004
4.751000e+002, 1.949686e+004
4.754000e+002, 1.937943e+004
4.757000e+002, 1.940543e+004
4.760000e+002, 1.931643e+004
4.763000e+002, 1.928857e+004
4.766000e+002, 1.941943e+004
4.769000e+002, 1.944229e+004
4.772000e+002, 1.946357e+004
4.775000e+002, 1.959414e+004
4.778000e+002, 1.962514e+004
4.781000e+002, 1.954057e+004
4.784000e+002, 1.946800e+004
4.787000e+002, 1.953929e+004
4.790000e+002, 1.939714e+004
4.793000e+002, 1.925286e+004
4.796000e+002, 1.920143e+004
4.799000e+002, 1.906757e+004
4.802000e+002, 1.893014e+004
4.805000e+002, 1.874357e+004
4.808000e+002, 1.866572e+004
4.811000e+002, 1.844314e+004
4.814000e+002, 1.828229e+004
4.817000e+002, 1.818829e+004
4.820000e+002, 1.802529e+004
4.823000e+002, 1.795457e+004
4.826000e+002, 1.784343e+004
4.829000e+002, 1.770986e+004
4.832000e+002, 1.771229e+004
4.835000e+002, 1.771957e+004
4.838000e+002, 1.763943e+004
4.841000e+002, 1.762657e+004
4.844000e+002, 1.762357e+004
4.847000e+002, 1.767614e+004
4.850000e+002, 1.766029e+004
4.853000e+002, 1.756800e+004
4.856000e+002, 1.762843e+004
4.859000e+002, 1.763129e+004
4.862000e+002, 1.753172e+004
4.865000e+002, 1.764786e+004
4.868000e+002, 1.772086e+004
4.871000e+002, 1.763486e+004
4.874000e+002, 1.766572e+004
4.877000e+002, 1.772300e+004
4.880000e+002, 1.772686e+004
4.883000e+002, 1.778329e+004
4.886000e+002, 1.784172e+004
4.889000e+002, 1.790214e+004
4.892000e+002, 1.802557e+004
4.895000e+002, 1.811672e+004
4.898000e+002, 1.811972e+004
4.901000e+002, 1.813557e+004
4.904000e+002, 1.814000e+004
4.907000e+002, 1.825243e+004
4.910000e+002, 1.817629e+004
4.913000e+002, 1.817386e+004
4.916000e+002, 1.820986e+004
4.919000e+002, 1.824600e+004
4.922000e+002, 1.822229e+004
4.925000e+002, 1.828086e+004
4.928000e+002, 1.830700e+004
4.931000e+002, 1.833657e+004
4.934000e+002, 1.830957e+004
4.937000e+002, 1.830772e+004
4.940000e+002, 1.833600e+004
4.943000e+002, 1.835257e+004
4.946000e+002, 1.844157e+004
4.949000e+002, 1.839643e+004
4.952000e+002, 1.839057e+004
4.955000e+002, 1.841457e+004
4.958000e+002, 1.844400e+004
4.961000e+002, 1.847886e+004
4.964000e+002, 1.847814e+004
4.967000e+002, 1.840457e+004
4.970000e+002, 1.845529e+004
4.973000e+002, 1.846829e+004
4.976000e+002, 1.842314e+004
4.979000e+002, 1.845572e+004
4.982000e+002, 1.837214e+004
4.985000e+002, 1.834657e+004
4.988000e+002, 1.834914e+004
4.991000e+002, 1.841400e+004
4.994000e+002, 1.837443e+004
4.997000e+002, 1.820429e+004
5.000000e+002, 1.808843e+004
5.003000e+002, 1.808243e+004
5.006000e+002, 1.807129e+004
5.009000e+002, 1.806500e+004
5.012000e+002, 1.793229e+004
5.015000e+002, 1.782557e+004
5.018000e+002, 1.772500e+004
5.021000e+002, 1.770043e+004
5.024000e+002, 1.776957e+004
5.027000e+002, 1.776500e+004
5.030000e+002, 1.778757e+004
5.033000e+002, 1.764486e+004
5.036000e+002, 1.765029e+004
5.039000e+002, 1.762543e+004
5.042000e+002, 1.766372e+004
5.045000e+002, 1.762229e+004
5.048000e+002, 1.759743e+004
5.051000e+002, 1.747186e+004
5.054000e+002, 1.750029e+004
5.057000e+002, 1.741586e+004
5.060000e+002, 1.736243e+004
5.063000e+002, 1.745214e+004
5.066000e+002, 1.743572e+004
5.069000e+002, 1.751372e+004
5.072000e+002, 1.754472e+004
5.075000e+002, 1.743743e+004
5.078000e+002, 1.738286e+004
5.081000e+002, 1.719300e+004
5.084000e+002, 1.724814e+004
5.087000e+002, 1.729957e+004
5.090000e+002, 1.738943e+004
5.093000e+002, 1.733572e+004
5.096000e+002, 1.721800e+004
5.099000e+002, 1.718600e+004
5.102000e+002, 1.724843e+004
5.105000e+002, 1.722986e+004
5.108000e+002, 1.718014e+004
5.111000e+002, 1.715214e+004
5.114000e+002, 1.714500e+004
5.117000e+002, 1.720272e+004
5.120000e+002, 1.721129e+004
5.123000e+002, 1.707529e+004
5.126000e+002, 1.694172e+004
5.129000e+002, 1.692314e+004
5.132000e+002, 1.690286e+004
5.135000e+002, 1.686472e+004
5.138000e+002, 1.678857e+004
5.141000e+002, 1.671100e+004
5.144000e+002, 1.667486e+004
5.147000e+002, 1.669429e+004
5.150000e+002, 1.662457e+004
5.153000e+002, 1.651243e+004
5.156000e+002, 1.656100e+004
5.159000e+002, 1.654086e+004
5.162000e+002, 1.649614e+004
5.165000e+002, 1.638914e+004
5.168000e+002, 1.629029e+004
5.171000e+002, 1.618843e+004
5.174000e+002, 1.612557e+004
5.177000e+002, 1.611929e+004
5.180000e+002, 1.605214e+004
5.183000e+002, 1.607957e+004
5.186000e+002, 1.600986e+004
5.189000e+002, 1.594400e+004
5.192000e+002, 1.591814e+004
5.195000e+002, 1.592929e+004
5.198000e+002, 1.585557e+004
5.201000e+002, 1.580671e+004
5.204000e+002, 1.570014e+004
5.207000e+002, 1.563757e+004
5.210000e+002, 1.565957e+004
5.213000e+002, 1.564471e+004
5.216000e+002, 1.556371e+004
5.219000e+002, 1.545657e+004
5.222000e+002, 1.541857e+004
5.225000e+002, 1.538343e+004
5.228000e+002, 1.522071e+004
5.231000e+002, 1.522729e+004
5.234000e+002, 1.520614e+004
5.237000e+002, 1.512986e+004
5.240000e+002, 1.513243e+004
5.243000e+002, 1.515029e+004
5.246000e+002, 1.504971e+004
5.249000e+002, 1.491414e+004
5.252000e+002, 1.486500e+004
5.255000e+002, 1.490371e+004
5.258000e+002, 1.488471e+004
5.261000e+002, 1.487614e+004
5.264000e+002, 1.483557e+004
5.267000e+002, 1.487114e+004
5.270000e+002, 1.479786e+004
5.273000e+002, 1.475657e+004
5.276000e+002, 1.473314e+004
5.279000e+002, 1.478943e+004
5.282000e+002, 1.478329e+004
5.285000e+002, 1.473229e+004
5.288000e+002, 1.459114e+004
5.291000e+002, 1.469729e+004
5.294000e+002, 1.475314e+004
5.297000e+002, 1.481386e+004
5.300000e+002, 1.487971e+004
5.303000e+002, 1.506671e+004
5.306000e+002, 1.532229e+004
5.309000e+002, 1.565357e+004
5.312000e+002, 1.600443e+004
5.315000e+002, 1.629757e+004
5.318000e+002, 1.667457e+004
5.321000e+002, 1.699657e+004
5.324000e+002, 1.724929e+004
5.327000e+002, 1.742714e+004
5.330000e+002, 1.758057e+004
5.333000e+002, 1.761614e+004
5.336000e+002, 1.763157e+004
5.339000e+002, 1.761757e+004
5.342000e+002, 1.762886e+004
5.345000e+002, 1.765657e+004
5.348000e+002, 1.766600e+004
5.351000e+002, 1.764557e+004
5.354000e+002, 1.770329e+004
5.357000e+002, 1.782757e+004
5.360000e+002, 1.786772e+004
5.363000e+002, 1.796129e+004
5.366000e+002, 1.807614e+004
5.369000e+002, 1.820314e+004
5.372000e+002, 1.828100e+004
5.375000e+002, 1.841357e+004
5.378000e+002, 1.866672e+004
5.381000e+002, 1.872014e+004
5.384000e+002, 1.871043e+004
5.387000e+002, 1.873114e+004
5.390000e+002, 1.853457e+004
5.393000e+002, 1.841472e+004
5.396000e+002, 1.819686e+004
5.399000e+002, 1.796757e+004
5.402000e+002, 1.779800e+004
5.405000e+002, 1.759643e+004
5.408000e+002, 1.740172e+004
5.411000e+002, 1.722800e+004
5.414000e+002, 1.691386e+004
5.417000e+002, 1.679529e+004
5.420000e+002, 1.661600e+004
5.423000e+002, 1.644800e+004
5.426000e+002, 1.656472e+004
5.429000e+002, 1.670657e+004
5.432000e+002, 1.678157e+004
5.435000e+002, 1.686772e+004
5.438000e+002, 1.704629e+004
5.441000e+002, 1.729772e+004
5.444000e+002, 1.751886e+004
5.447000e+002, 1.768957e+004
5.450000e+002, 1.781886e+004
5.453000e+002, 1.789772e+004
5.456000e+002, 1.800529e+004
5.459000e+002, 1.797986e+004
5.462000e+002, 1.795057e+004
5.465000e+002, 1.781129e+004
5.468000e+002, 1.759429e+004
5.471000e+002, 1.747614e+004
5.474000e+002, 1.741514e+004
5.477000e+002, 1.735314e+004
5.480000e+002, 1.711157e+004
5.483000e+002, 1.690300e+004
5.486000e+002, 1.675500e+004
5.489000e+002, 1.668772e+004
5.492000e+002, 1.657057e+004
5.495000e+002, 1.663200e+004
5.498000e+002, 1.650000e+004
5.501000e+002, 1.639857e+004
5.504000e+002, 1.634757e+004
5.507000e+002, 1.640929e+004
5.510000e+002, 1.651443e+004
5.512999e+002, 1.654586e+004
5.515999e+002, 1.651129e+004
5.518999e+002, 1.647943e+004
5.521999e+002, 1.646714e+004
5.524999e+002, 1.649586e+004
5.527999e+002, 1.647829e+004
5.530999e+002, 1.651557e+004
5.533999e+002, 1.652572e+004
5.536999e+002, 1.650314e+004
5.539999e+002, 1.642986e+004
5.542999e+002, 1.635886e+004
5.545999e+002, 1.621400e+004
5.548999e+002, 1.609557e+004
5.551999e+002, 1.602414e+004
5.554999e+002, 1.599772e+004
5.557999e+002, 1.595886e+004
5.560999e+002, 1.586757e+004
5.563999e+002, 1.589471e+004
5.566999e+002, 1.576714e+004
5.569999e+002, 1.570886e+004
5.572999e+002, 1.570686e+004
5.575999e+002, 1.566943e+004
5.578999e+002, 1.560386e+004
5.581999e+002, 1.556829e+004
5.584999e+002, 1.557914e+004
5.587999e+002, 1.553857e+004
5.590999e+002, 1.542186e+004
5.593999e+002, 1.542900e+004
5.596999e+002, 1.553043e+004
5.599999e+002, 1.542557e+004
5.602999e+002, 1.542886e+004
5.605999e+002, 1.549171e+004
5.608999e+002, 1.557057e+004
5.611999e+002, 1.560414e+004
5.614999e+002, 1.568943e+004
5.617999e+002, 1.565214e+004
5.620999e+002, 1.563100e+004
5.623999e+002, 1.566986e+004
5.626999e+002, 1.561257e+004
5.629999e+002, 1.563243e+004
5.632999e+002, 1.576257e+004
5.635999e+002, 1.574271e+004
5.638999e+002, 1.579129e+004
5.641999e+002, 1.583871e+004
5.644999e+002, 1.591243e+004
5.647999e+002, 1.603272e+004
5.650999e+002, 1.604486e+004
5.653999e+002, 1.600900e+004
5.656999e+002, 1.599829e+004
5.659999e+002, 1.605357e+004
5.662999e+002, 1.616957e+004
5.665999e+002, 1.616343e+004
5.668999e+002, 1.611943e+004
5.671999e+002, 1.613314e+004
5.674999e+002, 1.611200e+004
5.677999e+002, 1.609614e+004
5.680999e+002, 1.605857e+004
5.683999e+002, 1.608629e+004
5.686999e+002, 1.611557e+004
5.689999e+002, 1.617829e+004
5.692999e+002, 1.616257e+004
5.695999e+002, 1.617529e+004
5.698999e+002, 1.610529e+004
5.701999e+002, 1.603100e+004
5.704999e+002, 1.597471e+004
5.707999e+002, 1.595600e+004
5.710999e+002, 1.597571e+004
5.713999e+002, 1.590386e+004
5.716999e+002, 1.584043e+004
5.719999e+002, 1.579043e+004
5.722999e+002, 1.581800e+004
5.725999e+002, 1.577614e+004
5.728999e+002, 1.580657e+004
5.731999e+002, 1.576086e+004
5.734999e+002, 1.577171e+004
5.737999e+002, 1.574129e+004
5.740999e+002, 1.567943e+004
5.743999e+002, 1.559186e+004
5.746999e+002, 1.551614e+004
5.749999e+002, 1.553429e+004
5.752999e+002, 1.550471e+004
5.755999e+002, 1.549957e+004
5.758999e+002, 1.539943e+004
5.761999e+002, 1.541786e+004
5.764999e+002, 1.535914e+004
5.767999e+002, 1.526257e+004
5.770999e+002, 1.530514e+004
5.773999e+002, 1.538057e+004
5.776999e+002, 1.547214e+004
5.779999e+002, 1.542729e+004
5.782999e+002, 1.543000e+004
5.785999e+002, 1.532343e+004
5.788999e+002, 1.532800e+004
5.791999e+002, 1.529986e+004
5.794999e+002, 1.525157e+004
5.797999e+002, 1.515614e+004
5.800999e+002, 1.512743e+004
5.803999e+002, 1.513357e+004
5.806999e+002, 1.518757e+004
5.809999e+002, 1.509971e+004
5.812999e+002, 1.505643e+004
5.815999e+002, 1.510757e+004
5.818999e+002, 1.508300e+004
5.821999e+002, 1.494214e+004
5.824999e+002, 1.499700e+004
5.827999e+002, 1.487786e+004
5.830999e+002, 1.482043e+004
5.833999e+002, 1.482043e+004
5.836999e+002, 1.473400e+004
5.839999e+002, 1.470329e+004
5.842999e+002, 1.463314e+004
5.845999e+002, 1.474314e+004
5.848999e+002, 1.486329e+004
5.851999e+002, 1.478014e+004
5.854999e+002, 1.468814e+004
5.857999e+002, 1.461500e+004
5.860999e+002, 1.454157e+004
5.863999e+002, 1.452186e+004
5.866999e+002, 1.441414e+004
5.869999e+002, 1.441971e+004
5.872999e+002, 1.452114e+004
5.875999e+002, 1.450829e+004
5.878999e+002, 1.449786e+004
5.881999e+002, 1.442714e+004
5.884999e+002, 1.435614e+004
5.887999e+002, 1.429814e+004
5.890999e+002, 1.424600e+004
5.893999e+002, 1.416729e+004
5.896999e+002, 1.410400e+004
5.899999e+002, 1.404457e+004
5.902999e+002, 1.401743e+004
5.905999e+002, 1.398286e+004
5.908999e+002, 1.406957e+004
5.911999e+002, 1.402171e+004
5.914999e+002, 1.404814e+004
5.917999e+002, 1.408686e+004
5.920999e+002, 1.401657e+004
5.923999e+002, 1.394786e+004
5.926999e+002, 1.396486e+004
5.929999e+002, 1.390657e+004
5.932999e+002, 1.392043e+004
5.935999e+002, 1.392914e+004
5.938999e+002, 1.390671e+004
5.941999e+002, 1.388143e+004
5.944999e+002, 1.379043e+004
5.947999e+002, 1.374900e+004
5.950999e+002, 1.373800e+004
5.953999e+002, 1.378643e+004
5.956999e+002, 1.381329e+004
5.959999e+002, 1.378000e+004
5.962999e+002, 1.369443e+004
5.965999e+002, 1.373814e+004
5.968999e+002, 1.370000e+004
5.971999e+002, 1.366143e+004
5.974999e+002, 1.363271e+004
5.977999e+002, 1.368186e+004
5.980999e+002, 1.372800e+004
5.983999e+002, 1.363771e+004
5.986999e+002, 1.354686e+004
5.989999e+002, 1.356386e+004
5.992999e+002, 1.367329e+004
5.995999e+002, 1.362486e+004
5.998999e+002, 1.352329e+004
6.001999e+002, 1.357086e+004
6.004999e+002, 1.349857e+004
6.007999e+002, 1.344757e+004
6.010999e+002, 1.347871e+004
6.013999e+002, 1.351257e+004
6.016999e+002, 1.351843e+004
6.019999e+002, 1.348486e+004
6.022999e+002, 1.351386e+004
6.025999e+002, 1.343743e+004
6.028999e+002, 1.339000e+004
6.031999e+002, 1.328586e+004
6.034999e+002, 1.323957e+004
6.037999e+002, 1.317443e+004
6.040999e+002, 1.318514e+004
6.043999e+002, 1.317486e+004
6.046999e+002, 1.314614e+004
6.049999e+002, 1.317214e+004
6.052999e+002, 1.325014e+004
6.055999e+002, 1.323686e+004
6.058999e+002, 1.313886e+004
6.061999e+002, 1.309200e+004
6.064999e+002, 1.300886e+004
6.067999e+002, 1.302571e+004
6.070999e+002, 1.305986e+004
6.073999e+002, 1.301343e+004
6.076999e+002, 1.298871e+004
6.079999e+002, 1.294314e+004
6.082999e+002, 1.292643e+004
6.085999e+002, 1.288500e+004
6.088999e+002, 1.289500e+004
6.091999e+002, 1.287671e+004
6.094999e+002, 1.281100e+004
6.097999e+002, 1.286929e+004
6.100999e+002, 1.291014e+004
6.103999e+002, 1.287200e+004
6.106999e+002, 1.272443e+004
6.109999e+002, 1.271157e+004
6.112999e+002, 1.279700e+004
6.115999e+002, 1.277386e+004
6.118999e+002, 1.270729e+004
6.121999e+002, 1.268071e+004
6.124999e+002, 1.269914e+004
6.127999e+002, 1.265886e+004
6.130999e+002, 1.263214e+004
6.133999e+002, 1.259514e+004
6.136999e+002, 1.266300e+004
6.139999e+002, 1.262786e+004
6.142999e+002, 1.258000e+004
6.145999e+002, 1.246771e+004
6.148999e+002, 1.243586e+004
6.151999e+002, 1.236171e+004
6.154999e+002, 1.242286e+004
6.157999e+002, 1.243057e+004
6.160999e+002, 1.238586e+004
6.163999e+002, 1.231814e+004
6.166999e+002, 1.225300e+004
6.169999e+002, 1.227500e+004
6.172999e+002, 1.229600e+004
6.175999e+002, 1.221129e+004
6.178999e+002, 1.217929e+004
6.181999e+002, 1.208600e+004
6.184999e+002, 1.207043e+004
6.187999e+002, 1.213329e+004
6.190999e+002, 1.216014e+004
6.193999e+002, 1.218643e+004
6.196999e+002, 1.221543e+004
6.199999e+002, 1.209971e+004
6.202999e+002, 1.209043e+004
6.205999e+002, 1.210014e+004
6.208999e+002, 1.196729e+004
6.211999e+002, 1.190057e+004
6.214999e+002, 1.189971e+004
6.217999e+002, 1.192786e+004
6.220999e+002, 1.195171e+004
6.223999e+002, 1.185529e+004
6.226999e+002, 1.184243e+004
6.229999e+002, 1.185657e+004
6.232999e+002, 1.192171e+004
6.235999e+002, 1.190929e+004
6.238999e+002, 1.186257e+004
6.241999e+002, 1.182500e+004
6.244999e+002, 1.181357e+004
6.247999e+002, 1.183871e+004
6.250999e+002, 1.182143e+004
6.253999e+002, 1.188600e+004
6.256999e+002, 1.180200e+004
6.259999e+002, 1.179443e+004
6.262999e+002, 1.176329e+004
6.265999e+002, 1.168143e+004
6.268999e+002, 1.161143e+004
6.271999e+002, 1.157000e+004
6.274999e+002, 1.149843e+004
6.277999e+002, 1.149443e+004
6.280999e+002, 1.151257e+004
6.283999e+002, 1.148714e+004
6.286999e+002, 1.145329e+004
6.289999e+002, 1.149000e+004
6.292999e+002, 1.152514e+004
6.295999e+002, 1.147343e+004
6.298999e+002, 1.145300e+004
6.301999e+002, 1.155400e+004
6.304999e+002, 1.148729e+004
6.307999e+002, 1.147414e+004
6.310999e+002, 1.150200e+004
6.313999e+002, 1.140629e+004
6.316999e+002, 1.140300e+004
6.319999e+002, 1.134771e+004
6.322999e+002, 1.133871e+004
6.325999e+002, 1.139314e+004
6.328999e+002, 1.133471e+004
6.331999e+002, 1.123771e+004
6.334999e+002, 1.126900e+004
6.337999e+002, 1.121057e+004
6.340999e+002, 1.117286e+004
6.343999e+002, 1.117500e+004
6.346999e+002, 1.116300e+004
6.349999e+002, 1.105829e+004
6.352999e+002, 1.105886e+004
6.355999e+002, 1.102557e+004
6.358999e+002, 1.101614e+004
6.361999e+002, 1.101886e+004
6.364999e+002, 1.106771e+004
6.367999e+002, 1.109029e+004
6.370999e+002, 1.110700e+004
6.373999e+002, 1.105114e+004
6.376999e+002, 1.102014e+004
6.379999e+002, 1.099657e+004
6.382999e+002, 1.100486e+004
6.385999e+002, 1.106143e+004
6.388999e+002, 1.102629e+004
6.391999e+002, 1.102329e+004
6.394999e+002, 1.101657e+004
6.397999e+002, 1.091186e+004
6.400999e+002, 1.075729e+004
6.403999e+002, 1.076586e+004
6.406999e+002, 1.085971e+004
6.409999e+002, 1.085686e+004
6.412999e+002, 1.078786e+004
6.415999e+002, 1.078329e+004
6.418999e+002, 1.077257e+004
6.421999e+002, 1.083771e+004
6.424999e+002, 1.080143e+004
6.427999e+002, 1.071743e+004
6.430999e+002, 1.067229e+004
6.433999e+002, 1.070357e+004
6.436999e+002, 1.066286e+004
6.439999e+002, 1.066986e+004
6.442999e+002, 1.076114e+004
6.445999e+002, 1.076486e+004
6.448999e+002, 1.063029e+004
6.451999e+002, 1.059300e+004
6.454999e+002, 1.056329e+004
6.457999e+002, 1.047200e+004
6.460999e+002, 1.046857e+004
6.463999e+002, 1.051171e+004
6.466999e+002, 1.053686e+004
6.469999e+002, 1.049300e+004
6.472999e+002, 1.046114e+004
6.475999e+002, 1.046443e+004
6.478999e+002, 1.049657e+004
6.481999e+002, 1.052671e+004
6.484999e+002, 1.048857e+004
6.487999e+002, 1.051114e+004
6.490999e+002, 1.051243e+004
6.493999e+002, 1.038343e+004
6.496999e+002, 1.035057e+004
6.499999e+002, 1.032771e+004
6.502999e+002, 1.022929e+004
6.505999e+002, 1.013829e+004
6.508999e+002, 1.016829e+004
6.511999e+002, 1.018043e+004
6.514999e+002, 1.015143e+004
6.517999e+002, 1.015843e+004
6.520999e+002, 1.019914e+004
6.523999e+002, 1.025014e+004
6.526999e+002, 1.024357e+004
6.529999e+002, 1.018814e+004
6.532999e+002, 1.011700e+004
6.535999e+002, 1.011043e+004
6.538999e+002, 1.009929e+004
6.541999e+002, 1.005200e+004
6.544999e+002, 1.004271e+004
6.547999e+002, 9.958143e+003
6.550999e+002, 9.917000e+003
6.553999e+002, 9.921572e+003
6.556999e+002, 9.906429e+003
6.559999e+002, 9.878000e+003
6.562999e+002, 9.846715e+003
6.565999e+002, 9.879715e+003
6.568999e+002, 9.876715e+003
6.571999e+002, 9.928572e+003
6.574999e+002, 9.963715e+003
6.577999e+002, 9.888572e+003
6.580999e+002, 9.856000e+003
6.583999e+002, 9.901858e+003
6.586999e+002, 9.891429e+003
6.589999e+002, 9.842572e+003
6.592999e+002, 9.858572e+003
6.595999e+002, 9.823429e+003
6.598999e+002, 9.773000e+003
6.601999e+002, 9.733715e+003
6.604999e+002, 9.700572e+003
6.607999e+002, 9.694572e+003
6.610999e+002, 9.621572e+003
6.613999e+002, 9.602572e+003
6.616999e+002, 9.650858e+003
6.619999e+002, 9.635286e+003
6.622999e+002, 9.636715e+003
6.625999e+002, 9.624143e+003
6.628999e+002, 9.630143e+003
6.631999e+002, 9.568858e+003
6.634999e+002, 9.536143e+003
6.637999e+002, 9.489715e+003
6.640999e+002, 9.513572e+003
6.643999e+002, 9.409286e+003
#ENDOFDATA   : End Of Data and File